GITM2 log file
## Inputs from UAM.in
# Resart= F
# Eddy coef:  1750.000 Eddy P0:     0.000 Eddy P1:     0.000 Eddy Scaling:     1.000
# Statistical Models Only:  F Apex:  F
# EUV Data:  F
# AMIE: none           
none                                                                                                
# Solar Heating:  T Joule Heating:  T Auroral Heating:  T
# NO Cooling:  T O Cooling:  T
# Conduction:  T Turbulent Conduction:  T Updated Turbulent Conduction:  T
# Pressure Grad:  T Ion Drag:  T Neutral Drag:  T
# Viscosity:  T Coriolis:  T Gravity:  T
# Ion Chemistry:  T Ion Advection:  T Neutral Chemistry:  T
 
#START
   iStep yyyy mm dd hh mm ss  ms      dt min(T) max(T) mean(T) min(VV) max(VV) mean(VV) F107 F107A By Bz Vx HP HPn HPs SubsolarLon SubsolarLat SubsolarVTEC
       2 2002 12 21  0  0  3 926  3.9266    160.95326   1258.84526    965.90575    -32.84435    639.60991      1.17685    150.0    150.0      0.0     -5.0    400.0      1.0      1.0      1.0   3.14131  -0.40992  46.05648
       3 2002 12 21  0  0  7 595  3.6691    160.99383   1258.70437    965.93653    -62.39253    663.96199      2.24539    150.0    150.0      0.0     -5.0    400.0      1.0      1.0      1.0   3.14104  -0.40992  45.87937
       4 2002 12 21  0  0 11 279  3.6835    161.03054   1258.55466    965.97200    -92.32880    663.17847      3.17819    150.0    150.0      0.0     -5.0    400.0      1.0      1.0      1.0   3.14077  -0.40992  45.87004
       5 2002 12 21  0  0 14 972  3.6934    161.04684   1258.41431    966.01203   -122.26930    648.63780      4.04348    150.0    150.0      0.0     -5.0    400.0      1.0      1.0      1.0   3.14050  -0.40992  45.89741
       6 2002 12 21  0  0 18 674  3.7024    161.06759   1258.27661    966.05497   -152.25266    709.95219      4.87526    150.0    150.0      0.0     -5.0    400.0      1.0      1.0      1.0   3.14023  -0.40992  45.93818
       7 2002 12 21  0  0 22 383  3.7088    161.08701   1258.14114    966.09950   -182.19855    727.08779      5.69637    150.0    150.0      0.0     -5.0    400.0      1.0      1.0      1.0   3.13996  -0.40992  45.97972
       8 2002 12 21  0  0 26  97  3.7136    161.09626   1258.00725    966.14481   -212.08646    726.78389      6.52248    150.0    150.0      0.0     -5.0    400.0      1.0      1.0      1.0   3.13969  -0.40992  46.01916
       9 2002 12 21  0  0 29 814  3.7168    161.10621   1257.87486    966.19080   -241.89594    706.01365      7.35211    150.0    150.0      0.0     -5.0    400.0      1.0      1.0      1.0   3.13942  -0.40992  46.05477
      10 2002 12 21  0  0 33 530  3.7167    161.12705   1257.74656    966.23746   -271.57330    665.21531      8.17956    150.0    150.0      0.0     -5.0    400.0      1.0      1.0      1.0   3.13915  -0.40992  46.08635
      11 2002 12 21  0  0 37 242  3.7114    161.13422   1257.61932    966.28473   -301.09150    681.19904      8.99699    150.0    150.0      0.0     -5.0    400.0      1.0      1.0      1.0   3.13888  -0.40992  46.11395
      12 2002 12 21  0  0 40 952  3.7102    161.15038   1257.49229    966.33268   -330.51014    731.98730      9.79777    150.0    150.0      0.0     -5.0    400.0      1.0      1.0      1.0   3.13861  -0.40992  46.13781
      13 2002 12 21  0  0 44 667  3.7153    161.17115   1257.36483    966.38136   -359.86145    752.06341     10.59260    150.0    150.0      0.0     -5.0    400.0      1.0      1.0      1.0   3.13834  -0.40992  46.15823
      14 2002 12 21  0  0 48 395  3.7279    161.16952   1257.23650    966.43086   -389.21577    740.04630     11.39340    150.0    150.0      0.0     -5.0    400.0      1.0      1.0      1.0   3.13807  -0.40992  46.17555
      15 2002 12 21  0  0 52 116  3.7213    161.18040   1257.10914    966.48082   -418.42345    710.60739     12.19622    150.0    150.0      0.0     -5.0    400.0      1.0      1.0      1.0   3.13780  -0.40992  46.18999
      16 2002 12 21  0  0 55 813  3.6966    161.22471   1256.98276    966.53099   -447.33479    707.95164     12.99439    150.0    150.0      0.0     -5.0    400.0      1.0      1.0      1.0   3.13753  -0.40992  46.20177
      17 2002 12 21  0  0 59 474  3.6613    161.26289   1256.85736    966.58123   -475.78324    759.14019     13.77907    150.0    150.0      0.0     -5.0    400.0      1.0      1.0      1.0   3.13727  -0.40992  46.21114
      18 2002 12 21  0  1  3 118  3.6439    161.29730   1256.73194    966.63182   -504.01118    785.94047     14.55526    150.0    150.0      0.0     -5.0    400.0      1.0      1.0      1.0   3.13700  -0.40992  46.21811
      19 2002 12 21  0  1  6 748  3.6296    161.31079   1256.60717    966.68274   -531.97754    786.29305     15.33249    150.0    150.0      0.0     -5.0    400.0      1.0      1.0      1.0   3.13674  -0.40992  46.22307
      20 2002 12 21  0  1 10 358  3.6106    161.30743   1256.48212    966.73385   -559.57933    765.03776     16.11080    150.0    150.0      0.0     -5.0    400.0      1.0      1.0      1.0   3.13648  -0.40992  46.22638
      21 2002 12 21  0  1 13 991  3.6325    161.30444   1256.35293    966.78595   -586.96633    779.30493     16.89801    150.0    150.0      0.0     -5.0    400.0      1.0      1.0      1.0   3.13621  -0.40992  46.22735
      22 2002 12 21  0  1 17 670  3.6794    161.32439   1256.21948    966.83944   -614.18398    834.25582     17.69475    150.0    150.0      0.0     -5.0    400.0      1.0      1.0      1.0   3.13594  -0.40992  46.22660
      23 2002 12 21  0  1 21 347  3.6772    161.33686   1256.08717    966.89338   -640.93720    864.91956     18.48868    150.0    150.0      0.0     -5.0    400.0      1.0      1.0      1.0   3.13568  -0.40992  46.22456
      24 2002 12 21  0  1 25   4  3.6564    161.33368   1255.95508    966.94762   -667.22181    864.55354     19.28270    150.0    150.0      0.0     -5.0    400.0      1.0      1.0      1.0   3.13541  -0.40992  46.22152
      25 2002 12 21  0  1 28 646  3.6420    161.33979   1255.82167    967.00234   -693.60929    854.81018     20.08352    150.0    150.0      0.0     -5.0    400.0      1.0      1.0      1.0   3.13515  -0.40992  46.21770
      26 2002 12 21  0  1 32 281  3.6353    161.34434   1255.68635    967.05771   -720.22949    887.45156     20.88834    150.0    150.0      0.0     -5.0    400.0      1.0      1.0      1.0   3.13488  -0.40992  46.21324
      27 2002 12 21  0  1 35 904  3.6227    161.34255   1255.54985    967.11358   -746.31334    900.27846     21.69105    150.0    150.0      0.0     -5.0    400.0      1.0      1.0      1.0   3.13462  -0.40992  46.20827
      28 2002 12 21  0  1 39 526  3.6222    161.34573   1255.41104    967.17027   -770.83991    904.99746     22.49603    150.0    150.0      0.0     -5.0    400.0      1.0      1.0      1.0   3.13435  -0.40992  46.20290
      29 2002 12 21  0  1 43 162  3.6363    161.35117   1255.26940    967.22811   -795.02563    904.68094     23.30504    150.0    150.0      0.0     -5.0    400.0      1.0      1.0      1.0   3.13409  -0.40992  46.19720
      30 2002 12 21  0  1 46 782  3.6197    161.35020   1255.12865    967.28648   -818.55817    924.19401     24.12216    150.0    150.0      0.0     -5.0    400.0      1.0      1.0      1.0   3.13383  -0.40992  46.19128
      31 2002 12 21  0  1 50 393  3.6112    161.34572   1254.98617    967.34571   -841.07571    926.31241     24.94519    150.0    150.0      0.0     -5.0    400.0      1.0      1.0      1.0   3.13356  -0.40992  46.18521
      32 2002 12 21  0  1 53 987  3.5942    161.35033   1254.84331    967.40567   -858.48256    931.81971     25.75655    150.0    150.0      0.0     -5.0    400.0      1.0      1.0      1.0   3.13330  -0.40992  46.17905
      33 2002 12 21  0  1 57 572  3.5846    161.35311   1254.89535    967.46658   -878.88929    932.02187     26.55591    150.0    150.0      0.0     -5.0    400.0      1.0      1.0      1.0   3.13304  -0.40992  46.17284
      34 2002 12 21  0  2  1 157  3.5848    161.34655   1255.21842    967.52868   -898.12991    943.08102     27.36484    150.0    150.0      0.0     -5.0    400.0      1.0      1.0      1.0   3.13278  -0.40992  46.16662
      35 2002 12 21  0  2  4 749  3.5919    161.33093   1255.56154    967.59214   -916.40297    950.27987     28.19388    150.0    150.0      0.0     -5.0    400.0      1.0      1.0      1.0   3.13252  -0.40992  46.16066
      36 2002 12 21  0  2  8 356  3.6074    161.31921   1255.92050    967.65717   -933.93400    951.04805     29.02162    150.0    150.0      0.0     -5.0    400.0      1.0      1.0      1.0   3.13226  -0.40992  46.15566
      37 2002 12 21  0  2 11 969  3.6124    161.31270   1256.29245    967.72358   -946.40078    951.00990     29.83984    150.0    150.0      0.0     -5.0    400.0      1.0      1.0      1.0   3.13200  -0.40992  46.15050
      38 2002 12 21  0  2 15 571  3.6023    161.31896   1256.67469    967.79112   -954.40502    956.80213     30.65252    150.0    150.0      0.0     -5.0    400.0      1.0      1.0      1.0   3.13173  -0.40992  46.14528
      39 2002 12 21  0  2 19 166  3.5954    161.33487   1257.06443    967.85991   -958.99237    965.23580     31.46437    150.0    150.0      0.0     -5.0    400.0      1.0      1.0      1.0   3.13147  -0.40992  46.14001
      40 2002 12 21  0  2 22 758  3.5917    161.34035   1257.45987    967.93004   -961.15870    965.36849     32.27532    150.0    150.0      0.0     -5.0    400.0      1.0      1.0      1.0   3.13121  -0.40992  46.13478
      41 2002 12 21  0  2 26 342  3.5839    161.33233   1257.85955    968.00142   -961.73146    965.46273     33.09131    150.0    150.0      0.0     -5.0    400.0      1.0      1.0      1.0   3.13095  -0.40992  46.12962
      42 2002 12 21  0  2 29 924  3.5824    161.30216   1258.26243    968.07419   -961.36232    967.59990     33.89795    150.0    150.0      0.0     -5.0    400.0      1.0      1.0      1.0   3.13069  -0.40992  46.12456
      43 2002 12 21  0  2 33 506  3.5821    161.27517   1258.66849    968.14828   -960.52771    975.48353     34.68664    150.0    150.0      0.0     -5.0    400.0      1.0      1.0      1.0   3.13043  -0.40992  46.11963
      44 2002 12 21  0  2 37  92  3.5860    161.26997   1259.07778    968.22374   -959.54732    975.56128     35.45693    150.0    150.0      0.0     -5.0    400.0      1.0      1.0      1.0   3.13017  -0.40992  46.11486
      45 2002 12 21  0  2 40 685  3.5924    161.30836   1259.49074    968.30056   -958.62110    975.53644     36.23501    150.0    150.0      0.0     -5.0    400.0      1.0      1.0      1.0   3.12991  -0.40992  46.11025
      46 2002 12 21  0  2 44 281  3.5962    161.34998   1259.90753    968.37862   -958.04638    975.52862     37.02155    150.0    150.0      0.0     -5.0    400.0      1.0      1.0      1.0   3.12965  -0.40992  46.10583
      47 2002 12 21  0  2 47 878  3.5968    161.35857   1260.32783    968.45775   -957.78142    982.63900     37.79058    150.0    150.0      0.0     -5.0    400.0      1.0      1.0      1.0   3.12938  -0.40992  46.10160
      48 2002 12 21  0  2 51 470  3.5922    161.33108   1260.75103    968.53767   -957.74049    982.75837     38.53774    150.0    150.0      0.0     -5.0    400.0      1.0      1.0      1.0   3.12912  -0.40992  46.09759
      49 2002 12 21  0  2 55  55  3.5851    161.30101   1261.17502    968.61819   -957.97076    982.80605     39.26741    150.0    150.0      0.0     -5.0    400.0      1.0      1.0      1.0   3.12886  -0.40992  46.09380
      50 2002 12 21  0  2 58 643  3.5878    161.27722   1261.59855    968.69945   -958.67512    982.80784     39.98979    150.0    150.0      0.0     -5.0    400.0      1.0      1.0      1.0   3.12860  -0.40992  46.09022
      51 2002 12 21  0  3  2 233  3.5898    161.26815   1262.02114    968.78124   -959.68983    987.87964     40.70347    150.0    150.0      0.0     -5.0    400.0      1.0      1.0      1.0   3.12834  -0.40992  46.08685
      52 2002 12 21  0  3  5 823  3.5901    161.30884   1262.44223    968.86333   -960.40180    987.88939     41.40461    150.0    150.0      0.0     -5.0    400.0      1.0      1.0      1.0   3.12808  -0.40992  46.08284
      53 2002 12 21  0  3  9 411  3.5885    161.35539   1262.86046    968.94548   -960.34495    987.90574     42.08834    150.0    150.0      0.0     -5.0    400.0      1.0      1.0      1.0   3.12782  -0.40992  46.07794
      54 2002 12 21  0  3 13   5  3.5934    161.37292   1263.27624    969.02765   -959.29991    991.41052     42.74052    150.0    150.0      0.0     -5.0    400.0      1.0      1.0      1.0   3.12756  -0.40992  46.07318
      55 2002 12 21  0  3 16 606  3.6009    161.35920   1263.71854    969.10965   -956.91391    991.46378     43.36885    150.0    150.0      0.0     -5.0    400.0      1.0      1.0      1.0   3.12730  -0.40992  46.06909
      56 2002 12 21  0  3 20 208  3.6022    161.33638   1264.18262    969.19113   -954.04715    991.46928     43.99328    150.0    150.0      0.0     -5.0    400.0      1.0      1.0      1.0   3.12703  -0.40992  46.06566
      57 2002 12 21  0  3 23 810  3.6023    161.31622   1264.64814    969.27192   -949.98028    991.47762     44.59538    150.0    150.0      0.0     -5.0    400.0      1.0      1.0      1.0   3.12677  -0.40992  46.06277
      58 2002 12 21  0  3 27 407  3.5964    161.30994   1265.11308    969.35164   -945.08846    993.61256     45.15390    150.0    150.0      0.0     -5.0    400.0      1.0      1.0      1.0   3.12651  -0.40992  46.06034
      59 2002 12 21  0  3 31   3  3.5964    161.32707   1265.57711    969.43022   -940.78392    993.72956     45.68074    150.0    150.0      0.0     -5.0    400.0      1.0      1.0      1.0   3.12625  -0.40992  46.05828
      60 2002 12 21  0  3 34 603  3.5998    161.36318   1266.04144    969.50747   -939.75767    994.01916     46.18570    150.0    150.0      0.0     -5.0    400.0      1.0      1.0      1.0   3.12599  -0.40992  46.05658
      61 2002 12 21  0  3 38 206  3.6032    161.39507   1266.50715    969.58316   -928.99960    998.76860     46.66403    150.0    150.0      0.0     -5.0    400.0      1.0      1.0      1.0   3.12572  -0.40992  46.05521
      62 2002 12 21  0  3 41 809  3.6031    161.39393   1266.97511    969.65702   -917.23179    998.76945     47.10030    150.0    150.0      0.0     -5.0    400.0      1.0      1.0      1.0   3.12546  -0.40992  46.05414
      63 2002 12 21  0  3 45 415  3.6061    161.35891   1267.46844    969.72898   -894.99561    998.85681     47.48577    150.0    150.0      0.0     -5.0    400.0      1.0      1.0      1.0   3.12520  -0.40992  46.05333
      64 2002 12 21  0  3 49  28  3.6127    161.31509   1268.03085    969.79892   -854.95012    998.87905     47.82154    150.0    150.0      0.0     -5.0    400.0      1.0      1.0      1.0   3.12494  -0.40992  46.05275
      65 2002 12 21  0  3 52 639  3.6113    161.30556   1268.59510    969.86649   -836.87175    998.88101     48.10916    150.0    150.0      0.0     -5.0    400.0      1.0      1.0      1.0   3.12467  -0.40992  46.05240
      66 2002 12 21  0  3 56 252  3.6129    161.36556   1269.15888    969.93159   -823.45667    998.91929     48.34637    150.0    150.0      0.0     -5.0    400.0      1.0      1.0      1.0   3.12441  -0.40992  46.05230
      67 2002 12 21  0  3 59 863  3.6108    161.45692   1269.71714    969.99396   -812.07277    998.92058     48.54709    150.0    150.0      0.0     -5.0    400.0      1.0      1.0      1.0   3.12415  -0.40992  46.05243
      68 2002 12 21  0  4  3 474  3.6111    161.49047   1270.26504    970.05354   -802.23166    999.11241     48.69371    150.0    150.0      0.0     -5.0    400.0      1.0      1.0      1.0   3.12389  -0.40992  46.05279
      69 2002 12 21  0  4  7  88  3.6144    161.47318   1270.79570    970.11030   -790.26928    999.14780     48.78733    150.0    150.0      0.0     -5.0    400.0      1.0      1.0      1.0   3.12362  -0.40992  46.05261
      70 2002 12 21  0  4 10 704  3.6162    161.39207   1271.34211    970.16413   -765.48810    999.24757     48.85604    150.0    150.0      0.0     -5.0    400.0      1.0      1.0      1.0   3.12336  -0.40992  46.05136
      71 2002 12 21  0  4 14 322  3.6178    161.31858   1271.91385    970.21492   -723.88042    999.24744     48.89948    150.0    150.0      0.0     -5.0    400.0      1.0      1.0      1.0   3.12310  -0.40992  46.05039
      72 2002 12 21  0  4 17 943  3.6208    161.29619   1272.47169    970.26266   -713.76332    999.24698     48.89255    150.0    150.0      0.0     -5.0    400.0      1.0      1.0      1.0   3.12283  -0.40992  46.05001
      73 2002 12 21  0  4 21 563  3.6197    161.34571   1273.00573    970.30722   -701.69839    999.24738     48.83825    150.0    150.0      0.0     -5.0    400.0      1.0      1.0      1.0   3.12257  -0.40992  46.05020
      74 2002 12 21  0  4 25 183  3.6202    161.40956   1273.49845    970.34860   -690.77548    999.36522     48.76760    150.0    150.0      0.0     -5.0    400.0      1.0      1.0      1.0   3.12231  -0.40992  46.05089
      75 2002 12 21  0  4 28 806  3.6229    161.47977   1273.93402    970.38682   -675.92893    999.36499     48.67028    150.0    150.0      0.0     -5.0    400.0      1.0      1.0      1.0   3.12204  -0.40992  46.05201
      76 2002 12 21  0  4 32 429  3.6229    161.47066   1274.43473    970.42186   -646.90581    999.36521     48.52673    150.0    150.0      0.0     -5.0    400.0      1.0      1.0      1.0   3.12178  -0.40992  46.05353
      77 2002 12 21  0  4 36  53  3.6241    161.41762   1274.94690    970.45370   -600.73807    999.28631     48.36440    150.0    150.0      0.0     -5.0    400.0      1.0      1.0      1.0   3.12152  -0.40992  46.05540
      78 2002 12 21  0  4 39 678  3.6253    161.37842   1275.41181    970.48236   -587.92533    999.34331     48.19694    150.0    150.0      0.0     -5.0    400.0      1.0      1.0      1.0   3.12125  -0.40992  46.05757
      79 2002 12 21  0  4 43 305  3.6270    161.36900   1275.80759    970.50783   -575.77287    999.34304     48.02138    150.0    150.0      0.0     -5.0    400.0      1.0      1.0      1.0   3.12099  -0.40992  46.06001
      80 2002 12 21  0  4 46 932  3.6263    161.37673   1276.23271    970.53014   -566.31594    999.34320     47.82105    150.0    150.0      0.0     -5.0    400.0      1.0      1.0      1.0   3.12073  -0.40992  46.06268
      81 2002 12 21  0  4 50 556  3.6240    161.39682   1276.70642    970.54930   -538.01336    999.11215     47.60921    150.0    150.0      0.0     -5.0    400.0      1.0      1.0      1.0   3.12046  -0.40992  46.06556
      82 2002 12 21  0  4 54 178  3.6228    161.41618   1277.12032    970.56523   -463.85576    999.11309     47.40314    150.0    150.0      0.0     -5.0    400.0      1.0      1.0      1.0   3.12020  -0.40992  46.06862
      83 2002 12 21  0  4 57 802  3.6234    161.41462   1277.45359    970.57790   -452.02639    999.11457     47.18544    150.0    150.0      0.0     -5.0    400.0      1.0      1.0      1.0   3.11994  -0.40992  46.07187
      84 2002 12 21  0  5  0   0  2.1977    161.41968   1277.87986    970.57915   -443.65426    999.54070     47.05888    150.0    150.0      0.0     -5.0    400.0      1.0      1.0      1.0   3.11978  -0.40992  46.07386
